Name: TL 
Description: Black body radiation for TL at 1000°C. 
Type: TL 
emission (s) [nm ; mA/W]: 
 100 ; 2.05011528996087e-69 
 110 ; 2.83139912473893e-62 
 120 ; 2.43059994944107e-56 
 130 ; 2.46951231124431e-51 
 140 ; 4.7021322919789e-47 
 150 ; 2.34965905847698e-43 
 160 ; 3.96571581398666e-40 
 170 ; 2.74135605307673e-37 
 180 ; 9.01556411205911e-35 
 190 ; 1.58751377473701e-32 
 200 ; 1.64494960242071e-30 
 210 ; 1.08260284181507e-28 
 220 ; 4.81706257756453e-27 
 230 ; 1.52570619988255e-25 
 240 ; 3.59060045427875e-24 
 250 ; 6.50889685910617e-23 
 260 ; 9.36937607586484e-22 
 270 ; 1.09907439108919e-20 
 280 ; 1.07421394759133e-19 
 290 ; 8.91660307279944e-19 
 300 ; 6.39054255981316e-18 
 310 ; 4.01196895443807e-17 
 320 ; 2.23421154825192e-16 
 330 ; 1.11592853760641e-15 
 340 ; 5.0480526290137e-15 
 350 ; 2.08607494151413e-14 
 360 ; 7.93557945990652e-14 
 370 ; 2.79789970262576e-13 
 380 ; 9.1989488313764e-13 
 390 ; 2.83576906666069e-12 
 400 ; 8.2369183983192e-12 
 410 ; 2.26435498856233e-11 
 420 ; 5.91493258154488e-11 
 430 ; 1.47352331031626e-10 
 440 ; 3.51235089167888e-10 
 450 ; 8.03481206399588e-10 
 460 ; 1.76880240399518e-09 
 470 ; 3.75660320289104e-09 
 480 ; 7.71469730723808e-09 
 490 ; 1.53519335312737e-08 
 500 ; 2.96597255132497e-08 
 510 ; 5.57318826684104e-08 
 520 ; 1.02020023705618e-07 
 530 ; 1.822092525723e-07 
 540 ; 3.17956412588197e-07 
 550 ; 5.42801386906822e-07 
 560 ; 9.07640297461227e-07 
 570 ; 1.48823712548298e-06 
 580 ; 2.3953455697748e-06 
 590 ; 3.78811347359133e-06 
 600 ; 5.89154478438466e-06 
 610 ; 9.01889504138709e-06 
 620 ; 1.35999716045881e-05 
 630 ; 2.02163947177829e-05 
 640 ; 2.96449453922893e-05 
 650 ; 4.29101764589163e-05 
 660 ; 6.13474897340366e-05 
 670 ; 8.66778813794057e-05 
 680 ; 0.000121095526219205 
 690 ; 0.000167369307897939 
 700 ; 0.000228959304193319 
 710 ; 0.000310149105470962 
 720 ; 0.00041619468019582 
 730 ; 0.00055349030666984 
 740 ; 0.000729751867809108 
 750 ; 0.000954217559755866 
 760 ; 0.00123786580014183 
 770 ; 0.00159364984317059 
 780 ; 0.00203674832207739 
 790 ; 0.00258483065089635 
 800 ; 0.00325833593281608 
 810 ; 0.00408076374760818 
 820 ; 0.00507897493126613 
 830 ; 0.00628350022226483 
 840 ; 0.00772885443537036 
 850 ; 0.00945385363968649 
 860 ; 0.0115019326658897 
 870 ; 0.0139214601509026 
 880 ; 0.0167660482483212 
 890 ; 0.0200948540907082 
 900 ; 0.0239728700855961 
 910 ; 0.0284712001601897 
 920 ; 0.0336673191391576 
 930 ; 0.0396453125437497 
 940 ; 0.0464960942365083 
 950 ; 0.0543175995012803 
 960 ; 0.0632149513400048 
 970 ; 0.0733005979824606 
 980 ; 0.0846944198392337 
 990 ; 0.0975238043779403 
 1000 ; 0.111923687664474 
 1010 ; 0.128036561581061 
 1020 ; 0.146012446007585 
 1030 ; 0.166008825528557 
 1040 ; 0.188190550501917 
 1050 ; 0.212729702594646 
 1060 ; 0.239805425150996 
 1070 ; 0.269603719009652 
 1080 ; 0.302317204624024 
 1090 ; 0.33814485156327 
 1100 ; 0.377291676678915 
 1110 ; 0.419968412411872 
 1120 ; 0.466391146886112 
 1130 ; 0.516780937587625 
 1140 ; 0.571363400560133 
 1150 ; 0.630368277161975 
 1160 ; 0.69402898052202 
 1170 ; 0.762582123906043 
 1180 ; 0.836267033260031 
 1190 ; 0.915325246232915 
 1200 ; 1 
